Model,TBS 1062
Firmware Version,CF:91.1CT FV:v26.02
,
Waveform Type,ANALOG
Point Format,Y
Horizontal Units,"s"
Horizontal Scale,0.1
Horizontal Delay,0
Sample Interval,0.0004
Record Length,2500
Gating,0.0% to 100.0%
Probe Attenuation,10X
Vertical Units,"Volts"
Vertical Offset,0
Vertical Scale,5
Vertical Position,1.2
,
,
,
Label,
TIME,CH1
-4.96,-5.4
-4.9596,-5.6
-4.9592,-5.6
-4.9588,-5.4
-4.9584,-5.6
-4.958,-5.6
-4.9576,-5.6
-4.9572,-5.6
-4.9568,-5.6
-4.9564,-5.6
-4.956,-5.6
-4.9556,-5.6
-4.9552,-5.6
-4.9548,-5.6
-4.9544,-5.6
-4.954,-5.6
-4.9536,-5.6
-4.9532,-5.6
-4.9528,-5.6
-4.9524,-5.6
-4.952,-5.6
-4.9516,-5.6
-4.9512,-5.6
-4.9508,-5.6
-4.9504,-5.6
-4.95,-5.6
-4.9496,-5.8
-4.9492,-5.8
-4.9488,-5.8
-4.9484,-5.6
-4.948,-5.6
-4.9476,-5.6
-4.9472,-5.6
-4.9468,-5.8
-4.9464,-5.6
-4.946,-5.6
-4.9456,-5.8
-4.9452,-5.6
-4.9448,-5.6
-4.9444,-5.8
-4.944,-5.8
-4.9436,-5.8
-4.9432,-6
-4.9428,-5.8
-4.9424,-5.8
-4.942,-5.8
-4.9416,-5.8
-4.9412,-6
-4.9408,-5.8
-4.9404,-5.8
-4.94,-5.8
-4.9396,-6
-4.9392,-5.8
-4.9388,-5.8
-4.9384,-6
-4.938,-5.8
-4.9376,-5.8
-4.9372,-6
-4.9368,-6
-4.9364,-5.8
-4.936,-6
-4.9356,-5.8
-4.9352,-6
-4.9348,-6.2
-4.9344,-6
-4.934,-6
-4.9336,-6
-4.9332,-6
-4.9328,-6.2
-4.9324,-6
-4.932,-6.2
-4.9316,-6
-4.9312,-6
-4.9308,-6
-4.9304,-6.2
-4.93,-6
-4.9296,-6.2
-4.9292,-6.2
-4.9288,-6.2
-4.9284,-6.2
-4.928,-6.2
-4.9276,-6
-4.9272,-6
-4.9268,-6.2
-4.9264,-6.2
-4.926,-6
-4.9256,-6.2
-4.9252,-6.2
-4.9248,-6.2
-4.9244,-6.2
-4.924,-6.2
-4.9236,-6.2
-4.9232,-6.2
-4.9228,-6.2
-4.9224,-6.2
-4.922,-6.2
-4.9216,-6.2
-4.9212,-6.2
-4.9208,-6.2
-4.9204,-6.2
-4.92,-6.4
-4.9196,-6.2
-4.9192,-6.2
-4.9188,-6.4
-4.9184,-6.4
-4.918,-6.2
-4.9176,-6.4
-4.9172,-6.4
-4.9168,-6.4
-4.9164,-6.2
-4.916,-6.4
-4.9156,-6.4
-4.9152,-6.6
-4.9148,-6.4
-4.9144,-6.6
-4.914,-6.4
-4.9136,-6.6
-4.9132,-6.6
-4.9128,-6.4
-4.9124,-6.6
-4.912,-6.6
-4.9116,-6.4
-4.9112,-6.6
-4.9108,-6.4
-4.9104,-6.6
-4.91,-6.6
-4.9096,-6.6
-4.9092,-6.6
-4.9088,-6.6
-4.9084,-6.6
-4.908,-6.6
-4.9076,-6.6
-4.9072,-6.6
-4.9068,-6.6
-4.9064,-6.8
-4.906,-6.6
-4.9056,-6.8
-4.9052,-6.8
-4.9048,-6.8
-4.9044,-6.6
-4.904,-6.8
-4.9036,-6.8
-4.9032,-6.8
-4.9028,-6.8
-4.9024,-6.8
-4.902,-6.8
-4.9016,-6.8
-4.9012,-6.8
-4.9008,-6.8
-4.9004,-7
-4.9,-6.8
-4.8996,-6.8
-4.8992,-6.8
-4.8988,-6.8
-4.8984,-7
-4.898,-6.8
-4.8976,-6.8
-4.8972,-7
-4.8968,-7
-4.8964,-6.8
-4.896,-7
-4.8956,-7
-4.8952,-7
-4.8948,-7.2
-4.8944,-7
-4.894,-7
-4.8936,-7
-4.8932,-7.2
-4.8928,-7.2
-4.8924,-7.2
-4.892,-7.2
-4.8916,-7.2
-4.8912,-7.4
-4.8908,-7.2
-4.8904,-7.2
-4.89,-7.2
-4.8896,-7.2
-4.8892,-7.2
-4.8888,-7.4
-4.8884,-7.4
-4.888,-7.4
-4.8876,-7.4
-4.8872,-7.4
-4.8868,-7.2
-4.8864,-7.4
-4.886,-7.4
-4.8856,-7.4
-4.8852,-7.4
-4.8848,-7.4
-4.8844,-7.4
-4.884,-7.4
-4.8836,-7.6
-4.8832,-7.4
-4.8828,-7.6
-4.8824,-7.4
-4.882,-7.4
-4.8816,-7.4
-4.8812,-7.6
-4.8808,-7.6
-4.8804,-7.6
-4.88,-7.6
-4.8796,-7.6
-4.8792,-7.6
-4.8788,-7.6
-4.8784,-7.8
-4.878,-7.8
-4.8776,-7.8
-4.8772,-7.8
-4.8768,-7.8
-4.8764,-7.8
-4.876,-7.6
-4.8756,-8
-4.8752,-7.8
-4.8748,-7.8
-4.8744,-7.8
-4.874,-7.8
-4.8736,-7.8
-4.8732,-7.8
-4.8728,-8
-4.8724,-8
-4.872,-7.8
-4.8716,-8
-4.8712,-8
-4.8708,-8.2
-4.8704,-8.2
-4.87,-8.2
-4.8696,-8.2
-4.8692,-8.2
-4.8688,-8.2
-4.8684,-8.2
-4.868,-8.2
-4.8676,-8.2
-4.8672,-8.2
-4.8668,-8.2
-4.8664,-8.2
-4.866,-8.400001
-4.8656,-8.2
-4.8652,-8.400001
-4.8648,-8.400001
-4.8644,-8.400001
-4.864,-8.400001
-4.8636,-8.400001
-4.8632,-8.400001
-4.8628,-8.6
-4.8624,-8.2
-4.862,-8.400001
-4.8616,-8.6
-4.8612,-8.400001
-4.8608,-8.6
-4.8604,-8.6
-4.86,-8.6
-4.8596,-8.6
-4.8592,-8.6
-4.8588,-8.8
-4.8584,-8.6
-4.858,-8.8
-4.8576,-8.6
-4.8572,-8.8
-4.8568,-8.8
-4.8564,-8.8
-4.856,-8.8
-4.8556,-9
-4.8552,-9
-4.8548,-8.8
-4.8544,-8.8
-4.854,-8.8
-4.8536,-9
-4.8532,-9
-4.8528,-9
-4.8524,-9
-4.852,-9
-4.8516,-9
-4.8512,-9
-4.8508,-9
-4.8504,-9
-4.85,-9
-4.8496,-9
-4.8492,-9.2
-4.8488,-9.2
-4.8484,-9.2
-4.848,-9.2
-4.8476,-9.2
-4.8472,-9.400001
-4.8468,-9.2
-4.8464,-9.2
-4.846,-9.2
-4.8456,-9.400001
-4.8452,-9.400001
-4.8448,-9.400001
-4.8444,-9.400001
-4.844,-9.400001
-4.8436,-9.400001
-4.8432,-9.400001
-4.8428,-9.400001
-4.8424,-9.6
-4.842,-9.400001
-4.8416,-9.400001
-4.8412,-9.6
-4.8408,-9.6
-4.8404,-9.8
-4.84,-9.8
-4.8396,-9.8
-4.8392,-9.6
-4.8388,-9.6
-4.8384,-9.6
-4.838,-9.6
-4.8376,-9.6
-4.8372,-9.8
-4.8368,-9.6
-4.8364,-9.8
-4.836,-9.8
-4.8356,-9.8
-4.8352,-9.8
-4.8348,-9.8
-4.8344,-9.8
-4.834,-9.8
-4.8336,-10
-4.8332,-10
-4.8328,-10
-4.8324,-10
-4.832,-10
-4.8316,-10.2
-4.8312,-10
-4.8308,-10.2
-4.8304,-10
-4.83,-10.2
-4.8296,-10.2
-4.8292,-10.2
-4.8288,-10.2
-4.8284,-10.2
-4.828,-10.2
-4.8276,-10.4
-4.8272,-10.4
-4.8268,-10.4
-4.8264,-10.4
-4.826,-10.4
-4.8256,-10.4
-4.8252,-10.4
-4.8248,-10.6
-4.8244,-10.6
-4.824,-10.6
-4.8236,-10.6
-4.8232,-10.4
-4.8228,-10.6
-4.8224,-10.6
-4.822,-10.6
-4.8216,-10.8
-4.8212,-10.8
-4.8208,-10.8
-4.8204,-10.6
-4.82,-10.8
-4.8196,-10.6
-4.8192,-10.6
-4.8188,-10.6
-4.8184,-10.8
-4.818,-10.8
-4.8176,-10.8
-4.8172,-10.8
-4.8168,-11
-4.8164,-10.8
-4.816,-10.8
-4.8156,-11
-4.8152,-11
-4.8148,-11
-4.8144,-11
-4.814,-11.2
-4.8136,-11.2
-4.8132,-11.2
-4.8128,-11.2
-4.8124,-11.2
-4.812,-11
-4.8116,-11.2
-4.8112,-11
-4.8108,-11
-4.8104,-11
-4.81,-11
-4.8096,-11.2
-4.8092,-11.2
-4.8088,-11.4
-4.8084,-11.4
-4.808,-11.4
-4.8076,-11.2
-4.8072,-11.2
-4.8068,-11.4
-4.8064,-11.4
-4.806,-11.6
-4.8056,-11.4
-4.8052,-11.2
-4.8048,-11.6
-4.8044,-11.4
-4.804,-11.4
-4.8036,-11.6
-4.8032,-11.4
-4.8028,-11.6
-4.8024,-11.4
-4.802,-11.4
-4.8016,-11.6
-4.8012,-11.6
-4.8008,-11.6
-4.8004,-11.6
-4.8,-11.6
-4.7996,-11.6
-4.7992,-11.6
-4.7988,-11.8
-4.7984,-11.6
-4.798,-11.8
-4.7976,-11.6
-4.7972,-11.8
-4.7968,-11.8
-4.7964,-12
-4.796,-11.8
-4.7956,-12
-4.7952,-11.8
-4.7948,-11.8
-4.7944,-11.8
-4.794,-12
-4.7936,-12
-4.7932,-12
-4.7928,-11.8
-4.7924,-11.8
-4.792,-11.8
-4.7916,-12
-4.7912,-11.8
-4.7908,-12
-4.7904,-11.8
-4.79,-12.2
-4.7896,-12
-4.7892,-12
-4.7888,-12.2
-4.7884,-12
-4.788,-12
-4.7876,-12.2
-4.7872,-12.2
-4.7868,-12.2
-4.7864,-12.2
-4.786,-12.2
-4.7856,-12.2
-4.7852,-12.2
-4.7848,-12.2
-4.7844,-12.2
-4.784,-12.2
-4.7836,-12.2
-4.7832,-12.2
-4.7828,-12.2
-4.7824,-12.2
-4.782,-12.2
-4.7816,-12.2
-4.7812,-12.2
-4.7808,-12.4
-4.7804,-12.2
-4.78,-12.2
-4.7796,-12.4
-4.7792,-12.2
-4.7788,-12.2
-4.7784,-12.4
-4.778,-12.2
-4.7776,-12.4
-4.7772,-12.4
-4.7768,-12.2
-4.7764,-12.4
-4.776,-12.2
-4.7756,-12.4
-4.7752,-12.6
-4.7748,-12.4
-4.7744,-12.4
-4.774,-12.4
-4.7736,-12.4
-4.7732,-12.4
-4.7728,-12.6
-4.7724,-12.4
-4.772,-12.4
-4.7716,-12.6
-4.7712,-12.4
-4.7708,-12.4
-4.7704,-12.4
-4.77,-12.4
-4.7696,-12.6
-4.7692,-12.6
-4.7688,-12.6
-4.7684,-12.6
-4.768,-12.6
-4.7676,-12.4
-4.7672,-12.6
-4.7668,-12.4
-4.7664,-12.6
-4.766,-12.6
-4.7656,-12.4
-4.7652,-12.6
-4.7648,-12.4
-4.7644,-12.6
-4.764,-12.6
-4.7636,-12.6
-4.7632,-12.6
-4.7628,-12.4
-4.7624,-12.6
-4.762,-12.6
-4.7616,-12.6
-4.7612,-12.6
-4.7608,-12.6
-4.7604,-12.4
-4.76,-12.4
-4.7596,-12.4
-4.7592,-12.6
-4.7588,-12.6
-4.7584,-12.4
-4.758,-12.4
-4.7576,-12.4
-4.7572,-12.6
-4.7568,-12.4
-4.7564,-12.6
-4.756,-12.4
-4.7556,-12.4
-4.7552,-12.4
-4.7548,-12.6
-4.7544,-12.4
-4.754,-12.4
-4.7536,-12.4
-4.7532,-12.4
-4.7528,-12.4
-4.7524,-12.6
-4.752,-12.4
-4.7516,-12.2
-4.7512,-12.4
-4.7508,-12.4
-4.7504,-12.6
-4.75,-12.4
-4.7496,-12.6
-4.7492,-12.4
-4.7488,-12.2
-4.7484,-12.4
-4.748,-12.4
-4.7476,-12.2
-4.7472,-12.4
-4.7468,-12.4
-4.7464,-12.4
-4.746,-12.4
-4.7456,-12.4
-4.7452,-12.2
-4.7448,-12.2
-4.7444,-12.2
-4.744,-12.2
-4.7436,-12.4
-4.7432,-12.2
-4.7428,-12.2
-4.7424,-12.2
-4.742,-12.4
-4.7416,-12.2
-4.7412,-12.2
-4.7408,-12.2
-4.7404,-12.2
-4.74,-12.2
-4.7396,-12
-4.7392,-12
-4.7388,-11.8
-4.7384,-12
-4.738,-12
-4.7376,-12
-4.7372,-11.8
-4.7368,-12
-4.7364,-12
-4.736,-12
-4.7356,-11.8
-4.7352,-12
-4.7348,-11.8
-4.7344,-11.8
-4.734,-11.8
-4.7336,-11.8
-4.7332,-11.8
-4.7328,-11.6
-4.7324,-11.6
-4.732,-11.8
-4.7316,-11.6
-4.7312,-11.6
-4.7308,-11.6
-4.7304,-11.6
-4.73,-11.2
-4.7296,-11.4
-4.7292,-11.4
-4.7288,-11.2
-4.7284,-11.2
-4.728,-11.2
-4.7276,-11.2
-4.7272,-11.2
-4.7268,-11.2
-4.7264,-11.2
-4.726,-11
-4.7256,-11
-4.7252,-10.8
-4.7248,-10.8
-4.7244,-10.6
-4.724,-10.6
-4.7236,-10.6
-4.7232,-10.4
-4.7228,-10.4
-4.7224,-10.2
-4.722,-10.2
-4.7216,-10
-4.7212,-10
-4.7208,-9.8
-4.7204,-9.8
-4.72,-9.8
-4.7196,-9.6
-4.7192,-9.400001
-4.7188,-9.2
-4.7184,-9.2
-4.718,-9.400001
-4.7176,-9.2
-4.7172,-9.2
-4.7168,-9.400001
-4.7164,-9.400001
-4.716,-9.6
-4.7156,-10
-4.7152,-10
-4.7148,-10.2
-4.7144,-10.2
-4.714,-10.4
-4.7136,-10.4
-4.7132,-10.4
-4.7128,-10.4
-4.7124,-10.4
-4.712,-10.4
-4.7116,-10.4
-4.7112,-10.6
-4.7108,-10.4
-4.7104,-10.4
-4.71,-10.4
-4.7096,-10.4
-4.7092,-10.4
-4.7088,-10.2
-4.7084,-10.2
-4.708,-10
-4.7076,-10.2
-4.7072,-10.2
-4.7068,-10
-4.7064,-9.8
-4.706,-9.8
-4.7056,-9.6
-4.7052,-9.6
-4.7048,-9.8
-4.7044,-9.400001
-4.704,-9.400001
-4.7036,-9.400001
-4.7032,-9.2
-4.7028,-9.2
-4.7024,-9
-4.702,-8.8
-4.7016,-8.8
-4.7012,-8.400001
-4.7008,-8.400001
-4.7004,-8.400001
-4.7,-8.2
-4.6996,-8.2
-4.6992,-8
-4.6988,-7.8
-4.6984,-7.8
-4.698,-7.6
-4.6976,-7.2
-4.6972,-7.2
-4.6968,-6.8
-4.6964,-6.8
-4.696,-6.8
-4.6956,-6.4
-4.6952,-6
-4.6948,-5.8
-4.6944,-5.4
-4.694,-5.2
-4.6936,-5
-4.6932,-4.8
-4.6928,-4.6
-4.6924,-4.2
-4.692,-4.4
-4.6916,-4.4
-4.6912,-4.4
-4.6908,-4.4
-4.6904,-4.4
-4.69,-4.6
-4.6896,-4.4
-4.6892,-4.6
-4.6888,-4.8
-4.6884,-5
-4.688,-5
-4.6876,-5.2
-4.6872,-5.4
-4.6868,-5.4
-4.6864,-5.4
-4.686,-5.6
-4.6856,-5.6
-4.6852,-5.6
-4.6848,-5.6
-4.6844,-5.6
-4.684,-5.6
-4.6836,-5.6
-4.6832,-5.6
-4.6828,-5.6
-4.6824,-5.6
-4.682,-5.4
-4.6816,-5.4
-4.6812,-4.8
-4.6808,-5
-4.6804,-5
-4.68,-5
-4.6796,-5
-4.6792,-5
-4.6788,-4.8
-4.6784,-4.6
-4.678,-4.4
-4.6776,-4.4
-4.6772,-4.2
-4.6768,-4.8
-4.6764,-4.8
-4.676,-4.6
-4.6756,-4.6
-4.6752,-4.6
-4.6748,-5.2
-4.6744,-5.4
-4.674,-5.6
-4.6736,-5.8
-4.6732,-6
-4.6728,-6
-4.6724,-6.2
-4.672,-6.2
-4.6716,-6.2
-4.6712,-6.6
-4.6708,-6.4
-4.6704,-6.8
-4.67,-6.8
-4.6696,-6.8
-4.6692,-6.8
-4.6688,-7
-4.6684,-7
-4.668,-7
-4.6676,-7.2
-4.6672,-7.2
-4.6668,-7
-4.6664,-7.2
-4.666,-7.2
-4.6656,-7.2
-4.6652,-7.4
-4.6648,-7.4
-4.6644,-7.2
-4.664,-7.4
-4.6636,-7.4
-4.6632,-7.6
-4.6628,-7.4
-4.6624,-7.6
-4.662,-7.8
-4.6616,-7.8
-4.6612,-7.6
-4.6608,-7.8
-4.6604,-7.8
-4.66,-8
-4.6596,-8
-4.6592,-8.2
-4.6588,-8.2
-4.6584,-8.2
-4.658,-8.2
-4.6576,-8.2
-4.6572,-8.2
-4.6568,-8.2
-4.6564,-8.2
-4.656,-8.2
-4.6556,-8.2
-4.6552,-8.2
-4.6548,-8.2
-4.6544,-8.2
-4.654,-8
-4.6536,-8.2
-4.6532,-8.2
-4.6528,-8.2
-4.6524,-8.2
-4.652,-8.2
-4.6516,-8
-4.6512,-8.2
-4.6508,-8
-4.6504,-7.8
-4.65,-8
-4.6496,-7.8
-4.6492,-7.8
-4.6488,-8
-4.6484,-8
-4.648,-8
-4.6476,-8
-4.6472,-8
-4.6468,-8.2
-4.6464,-8.2
-4.646,-8.2
-4.6456,-8.2
-4.6452,-8.2
-4.6448,-8.2
-4.6444,-8.2
-4.644,-8.400001
-4.6436,-8.400001
-4.6432,-8.400001
-4.6428,-8.400001
-4.6424,-8.400001
-4.642,-8.400001
-4.6416,-8.400001
-4.6412,-8.6
-4.6408,-8.6
-4.6404,-8.6
-4.64,-8.6
-4.6396,-8.6
-4.6392,-8.6
-4.6388,-8.6
-4.6384,-8.6
-4.638,-8.6
-4.6376,-8.6
-4.6372,-8.6
-4.6368,-8.400001
-4.6364,-8.6
-4.636,-8.6
-4.6356,-8.6
-4.6352,-8.6
-4.6348,-8.6
-4.6344,-8.400001
-4.634,-8.6
-4.6336,-8.400001
-4.6332,-8.6
-4.6328,-8.400001
-4.6324,-8.6
-4.632,-8.400001
-4.6316,-8.400001
-4.6312,-8.400001
-4.6308,-8.400001
-4.6304,-8.6
-4.63,-8.400001
-4.6296,-8.400001
-4.6292,-8.400001
-4.6288,-8.400001
-4.6284,-8.400001
-4.628,-8.6
-4.6276,-8.400001
-4.6272,-8.6
-4.6268,-8.6
-4.6264,-8.6
-4.626,-8.400001
-4.6256,-8.400001
-4.6252,-8.400001
-4.6248,-8.400001
-4.6244,-8.2
-4.624,-8.2
-4.6236,-8.2
-4.6232,-8.400001
-4.6228,-8.2
-4.6224,-8.400001
-4.622,-8.2
-4.6216,-8.2
-4.6212,-8.2
-4.6208,-8
-4.6204,-8.2
-4.62,-8.2
-4.6196,-8.2
-4.6192,-8.2
-4.6188,-8
-4.6184,-8
-4.618,-8
-4.6176,-8
-4.6172,-8
-4.6168,-8
-4.6164,-8
-4.616,-8
-4.6156,-7.8
-4.6152,-8
-4.6148,-7.8
-4.6144,-8
-4.614,-7.8
-4.6136,-8
-4.6132,-7.8
-4.6128,-7.8
-4.6124,-7.6
-4.612,-7.8
-4.6116,-7.6
-4.6112,-7.8
-4.6108,-7.6
-4.6104,-7.4
-4.61,-7.6
-4.6096,-7.8
-4.6092,-7.6
-4.6088,-7.4
-4.6084,-7.6
-4.608,-7.4
-4.6076,-7.4
-4.6072,-7.4
-4.6068,-7.4
-4.6064,-7.4
-4.606,-7.2
-4.6056,-7.2
-4.6052,-7.2
-4.6048,-7.2
-4.6044,-7.2
-4.604,-7.2
-4.6036,-7
-4.6032,-7.2
-4.6028,-7
-4.6024,-7
-4.602,-7
-4.6016,-7.2
-4.6012,-7
-4.6008,-6.8
-4.6004,-7
-4.6,-6.8
-4.5996,-6.8
-4.5992,-6.8
-4.5988,-6.8
-4.5984,-6.8
-4.598,-6.8
-4.5976,-6.8
-4.5972,-6.6
-4.5968,-6.6
-4.5964,-6.6
-4.596,-6.8
-4.5956,-6.6
-4.5952,-6.6
-4.5948,-6.6
-4.5944,-6.6
-4.594,-6.4
-4.5936,-6.6
-4.5932,-6.4
-4.5928,-6.2
-4.5924,-6.4
-4.592,-6.4
-4.5916,-6.2
-4.5912,-6.2
-4.5908,-6.2
-4.5904,-6.2
-4.59,-6.2
-4.5896,-6.4
-4.5892,-6.2
-4.5888,-6
-4.5884,-6.2
-4.588,-6
-4.5876,-5.8
-4.5872,-5.8
-4.5868,-5.8
-4.5864,-5.8
-4.586,-5.6
-4.5856,-5.6
-4.5852,-5.8
-4.5848,-5.6
-4.5844,-5.6
-4.584,-5.6
-4.5836,-5.6
-4.5832,-5.6
-4.5828,-5.6
-4.5824,-5.4
-4.582,-5.2
-4.5816,-5.4
-4.5812,-5.4
-4.5808,-5.4
-4.5804,-5.4
-4.58,-5.2
-4.5796,-5.4
-4.5792,-5.2
-4.5788,-5.2
-4.5784,-5
-4.578,-5
-4.5776,-5.2
-4.5772,-5.2
-4.5768,-5.2
-4.5764,-5
-4.576,-5
-4.5756,-4.8
-4.5752,-5
-4.5748,-5
-4.5744,-4.8
-4.574,-4.8
-4.5736,-4.8
-4.5732,-4.8
-4.5728,-4.6
-4.5724,-4.6
-4.572,-4.6
-4.5716,-4.6
-4.5712,-4.6
-4.5708,-4.4
-4.5704,-4.6
-4.57,-4.4
-4.5696,-4.4
-4.5692,-4.6
-4.5688,-4.4
-4.5684,-4.4
-4.568,-4.4
-4.5676,-4.4
-4.5672,-4.4
-4.5668,-4.4
-4.5664,-4.2
-4.566,-4.4
-4.5656,-4.4
-4.5652,-4.2
-4.5648,-4
-4.5644,-4
-4.564,-4.2
-4.5636,-4.2
-4.5632,-4.2
-4.5628,-4
-4.5624,-4
-4.562,-4
-4.5616,-4.2
-4.5612,-3.8
-4.5608,-3.8
-4.5604,-3.8
-4.56,-3.8
-4.5596,-3.8
-4.5592,-3.6
-4.5588,-3.6
-4.5584,-3.8
-4.558,-3.6
-4.5576,-3.6
-4.5572,-3.4
-4.5568,-3.6
-4.5564,-3.6
-4.556,-3.6
-4.5556,-3.6
-4.5552,-3.4
-4.5548,-3.4
-4.5544,-3.4
-4.554,-3.4
-4.5536,-3.4
-4.5532,-3.4
-4.5528,-3.4
-4.5524,-3.2
-4.552,-3.4
-4.5516,-3.4
-4.5512,-3.2
-4.5508,-3.2
-4.5504,-3.2
-4.55,-3.2
-4.5496,-3.2
-4.5492,-3
-4.5488,-3
-4.5484,-3
-4.548,-3
-4.5476,-3
-4.5472,-3
-4.5468,-3
-4.5464,-3
-4.546,-3
-4.5456,-2.8
-4.5452,-2.8
-4.5448,-2.8
-4.5444,-2.8
-4.544,-3
-4.5436,-2.8
-4.5432,-2.8
-4.5428,-2.8
-4.5424,-2.8
-4.542,-2.8
-4.5416,-2.6
-4.5412,-2.6
-4.5408,-2.8
-4.5404,-2.6
-4.54,-2.6
-4.5396,-2.6
-4.5392,-2.6
-4.5388,-2.4
-4.5384,-2.6
-4.538,-2.4
-4.5376,-2.4
-4.5372,-2.4
-4.5368,-2.4
-4.5364,-2.4
-4.536,-2.4
-4.5356,-2.4
-4.5352,-2.4
-4.5348,-2.4
-4.5344,-2.2
-4.534,-2.4
-4.5336,-2.4
-4.5332,-2.2
-4.5328,-2.4
-4.5324,-2.2
-4.532,-2.2
-4.5316,-2.2
-4.5312,-2.2
-4.5308,-2.2
-4.5304,-2
-4.53,-2.2
-4.5296,-2.2
-4.5292,-2.2
-4.5288,-2.2
-4.5284,-2.2
-4.528,-2.2
-4.5276,-2.2
-4.5272,-2
-4.5268,-2
-4.5264,-2
-4.526,-1.8
-4.5256,-2
-4.5252,-2
-4.5248,-1.8
-4.5244,-2
-4.524,-2
-4.5236,-2
-4.5232,-1.8
-4.5228,-1.8
-4.5224,-1.8
-4.522,-1.8
-4.5216,-1.8
-4.5212,-1.8
-4.5208,-1.8
-4.5204,-1.8
-4.52,-1.8
-4.5196,-1.6
-4.5192,-1.8
-4.5188,-1.6
-4.5184,-1.6
-4.518,-1.6
-4.5176,-1.8
-4.5172,-1.6
-4.5168,-1.8
-4.5164,-1.6
-4.516,-1.8
-4.5156,-1.6
-4.5152,-1.6
-4.5148,-1.6
-4.5144,-1.6
-4.514,-1.8
-4.5136,-1.6
-4.5132,-1.6
-4.5128,-1.6
-4.5124,-1.6
-4.512,-1.6
-4.5116,-1.6
-4.5112,-1.6
-4.5108,-1.6
-4.5104,-1.6
-4.51,-1.4
-4.5096,-1.6
-4.5092,-1.6
-4.5088,-1.6
-4.5084,-1.4
-4.508,-1.6
-4.5076,-1.6
-4.5072,-1.4
-4.5068,-1.4
-4.5064,-1.6
-4.506,-1.4
-4.5056,-1.4
-4.5052,-1.4
-4.5048,-1.4
-4.5044,-1.6
-4.504,-1.4
-4.5036,-1.4
-4.5032,-1.4
-4.5028,-1.4
-4.5024,-1.4
-4.502,-1.4
-4.5016,-1.4
-4.5012,-1.4
-4.5008,-1.4
-4.5004,-1.4
-4.5,-1.4
-4.4996,-1.4
-4.4992,-1.4
-4.4988,-1.4
-4.4984,-1.4
-4.498,-1.2
-4.4976,-1.6
-4.4972,-1.2
-4.4968,-1.4
-4.4964,-1.4
-4.496,-1.4
-4.4956,-1.2
-4.4952,-1.2
-4.4948,-1.2
-4.4944,-1.2
-4.494,-1.2
-4.4936,-1.4
-4.4932,-1.4
-4.4928,-1.2
-4.4924,-1.2
-4.492,-1.2
-4.4916,-1.2
-4.4912,-1.2
-4.4908,-1.2
-4.4904,-1.2
-4.49,-1.2
-4.4896,-1.2
-4.4892,-1.4
-4.4888,-1.2
-4.4884,-1.2
-4.488,-1.2
-4.4876,-1.2
-4.4872,-1.2
-4.4868,-1.2
-4.4864,-1.2
-4.486,-1
-4.4856,-1.2
-4.4852,-1.2
-4.4848,-1
-4.4844,-1
-4.484,-1.2
-4.4836,-1.2
-4.4832,-1.2
-4.4828,-1
-4.4824,-1.2
-4.482,-1
-4.4816,-1.2
-4.4812,-1.2
-4.4808,-1.2
-4.4804,-1.2
-4.48,-1.2
-4.4796,-1.2
-4.4792,-1
-4.4788,-1.2
-4.4784,-1.2
-4.478,-1
-4.4776,-1
-4.4772,-1
-4.4768,-1
-4.4764,-1.2
-4.476,-1
-4.4756,-1
-4.4752,-1.2
-4.4748,-1
-4.4744,-1
-4.474,-1.2
-4.4736,-1
-4.4732,-1
-4.4728,-1.2
-4.4724,-1
-4.472,-1
-4.4716,-1.2
-4.4712,-1
-4.4708,-1
-4.4704,-1
-4.47,-1.2
-4.4696,-1.2
-4.4692,-1
-4.4688,-1
-4.4684,-1.2
-4.468,-1.2
-4.4676,-1
-4.4672,-1
-4.4668,-1.2
-4.4664,-1.2
-4.466,-1
-4.4656,-1
-4.4652,-1.2
-4.4648,-1.2
-4.4644,-1
-4.464,-1
-4.4636,-1
-4.4632,-1
-4.4628,-1
-4.4624,-1
-4.462,-1.2
-4.4616,-1
-4.4612,-1
-4.4608,-1.2
-4.4604,-1.2
-4.46,-1
-4.4596,-1.2
-4.4592,-1.2
-4.4588,-1.2
-4.4584,-1.2
-4.458,-1
-4.4576,-1
-4.4572,-1.2
-4.4568,-1.2
-4.4564,-1.2
-4.456,-1.2
-4.4556,-1
-4.4552,-1
-4.4548,-1.2
-4.4544,-1
-4.454,-1.2
-4.4536,-1.2
-4.4532,-1.2
-4.4528,-1.2
-4.4524,-1
-4.452,-1.2
-4.4516,-1
-4.4512,-1
-4.4508,-1.2
-4.4504,-1.2
-4.45,-1
-4.4496,-1.2
-4.4492,-1.2
-4.4488,-1.2
-4.4484,-1.2
-4.448,-1.2
-4.4476,-1.2
-4.4472,-1.2
-4.4468,-1.2
-4.4464,-1.2
-4.446,-1
-4.4456,-1.2
-4.4452,-1.2
-4.4448,-1.4
-4.4444,-1.2
-4.444,-1.2
-4.4436,-1.2
-4.4432,-1.4
-4.4428,-1.2
-4.4424,-1
-4.442,-1.2
-4.4416,-1.2
-4.4412,-1.2
-4.4408,-1.2
-4.4404,-1.2
-4.44,-1.2
-4.4396,-1.2
-4.4392,-1.2
-4.4388,-1.2
-4.4384,-1.4
-4.438,-1.2
-4.4376,-1.2
-4.4372,-1.2
-4.4368,-1.2
-4.4364,-1.4
-4.436,-1.2
-4.4356,-1.2
-4.4352,-1.4
-4.4348,-1.4
-4.4344,-1.6
-4.434,-1.4
-4.4336,-1.4
-4.4332,-1.2
-4.4328,-1.6
-4.4324,-1.4
-4.432,-1.4
-4.4316,-1.4
-4.4312,-1.4
-4.4308,-1.4
-4.4304,-1.4
-4.43,-1.4
-4.4296,-1.4
-4.4292,-1.4
-4.4288,-1.4
-4.4284,-1.4
-4.428,-1.6
-4.4276,-1.4
-4.4272,-1.2
-4.4268,-1.4
-4.4264,-1.6
-4.426,-1.4
-4.4256,-1.4
-4.4252,-1.4
-4.4248,-1.4
-4.4244,-1.4
-4.424,-1.6
-4.4236,-1.6
-4.4232,-1.4
-4.4228,-1.4
-4.4224,-1.4
-4.422,-1.6
-4.4216,-1.4
-4.4212,-1.4
-4.4208,-1.6
-4.4204,-1.6
-4.42,-1.6
-4.4196,-1.6
-4.4192,-1.4
-4.4188,-1.6
-4.4184,-1.6
-4.418,-1.6
-4.4176,-1.6
-4.4172,-1.6
-4.4168,-1.6
-4.4164,-1.6
-4.416,-1.4
-4.4156,-1.6
-4.4152,-1.6
-4.4148,-1.6
-4.4144,-1.6
-4.414,-1.6
-4.4136,-1.6
-4.4132,-1.6
-4.4128,-1.8
-4.4124,-1.6
-4.412,-1.6
-4.4116,-1.6
-4.4112,-1.6
-4.4108,-1.6
-4.4104,-1.8
-4.41,-1.6
-4.4096,-1.6
-4.4092,-1.6
-4.4088,-1.6
-4.4084,-1.8
-4.408,-1.6
-4.4076,-1.8
-4.4072,-1.8
-4.4068,-1.8
-4.4064,-1.6
-4.406,-1.8
-4.4056,-1.8
-4.4052,-1.8
-4.4048,-1.8
-4.4044,-1.8
-4.404,-1.8
-4.4036,-1.8
-4.4032,-1.8
-4.4028,-2
-4.4024,-1.8
-4.402,-2
-4.4016,-2
-4.4012,-2
-4.4008,-1.8
-4.4004,-2
-4.4,-2
-4.3996,-2
-4.3992,-2
-4.3988,-2
-4.3984,-2
-4.398,-2
-4.3976,-1.8
-4.3972,-2
-4.3968,-2
-4.3964,-2
-4.396,-2
-4.3956,-1.8
-4.3952,-2
-4.3948,-2
-4.3944,-2.2
-4.394,-2
-4.3936,-2.2
-4.3932,-2
-4.3928,-2
-4.3924,-2.2
-4.392,-2.2
-4.3916,-2
-4.3912,-2.2
-4.3908,-2.2
-4.3904,-2.2
-4.39,-2.4
-4.3896,-2.4
-4.3892,-2.2
-4.3888,-2.4
-4.3884,-2.2
-4.388,-2.2
-4.3876,-2.4
-4.3872,-2.2
-4.3868,-2.2
-4.3864,-2.4
-4.386,-2.2
-4.3856,-2.4
-4.3852,-2.4
-4.3848,-2.4
-4.3844,-2.4
-4.384,-2.4
-4.3836,-2.4
-4.3832,-2.4
-4.3828,-2.4
-4.3824,-2.6
-4.382,-2.4
-4.3816,-2.4
-4.3812,-2.4
-4.3808,-2.4
-4.3804,-2.6
-4.38,-2.6
-4.3796,-2.6
-4.3792,-2.4
-4.3788,-2.6
-4.3784,-2.6
-4.378,-2.4
-4.3776,-2.6
-4.3772,-2.6
-4.3768,-2.6
-4.3764,-2.8
-4.376,-2.6
-4.3756,-2.6
-4.3752,-2.6
-4.3748,-2.6
-4.3744,-2.6
-4.374,-2.8
-4.3736,-2.8
-4.3732,-2.8
-4.3728,-2.8
-4.3724,-2.8
-4.372,-2.8
-4.3716,-2.8
-4.3712,-2.8
-4.3708,-3
-4.3704,-2.8
-4.37,-2.8
-4.3696,-3
-4.3692,-2.8
-4.3688,-2.8
-4.3684,-3
-4.368,-3
-4.3676,-2.8
-4.3672,-3
-4.3668,-2.8
-4.3664,-3
-4.366,-3
-4.3656,-3
-4.3652,-3
-4.3648,-3
-4.3644,-3
-4.364,-3
-4.3636,-3
-4.3632,-3
-4.3628,-3.2
-4.3624,-3.2
-4.362,-3.2
-4.3616,-3
-4.3612,-3.2
-4.3608,-3.2
-4.3604,-3.2
-4.36,-3.2
-4.3596,-3.2
-4.3592,-3.2
-4.3588,-3.2
-4.3584,-3.2
-4.358,-3.2
-4.3576,-3.2
-4.3572,-3.2
-4.3568,-3.4
-4.3564,-3.4
-4.356,-3.4
-4.3556,-3.4
-4.3552,-3.4
-4.3548,-3.4
-4.3544,-3.4
-4.354,-3.4
-4.3536,-3.4
-4.3532,-3.4
-4.3528,-3.4
-4.3524,-3.4
-4.352,-3.6
-4.3516,-3.4
-4.3512,-3.6
-4.3508,-3.6
-4.3504,-3.4
-4.35,-3.6
-4.3496,-3.6
-4.3492,-3.6
-4.3488,-3.6
-4.3484,-3.6
-4.348,-3.4
-4.3476,-3.6
-4.3472,-3.6
-4.3468,-3.8
-4.3464,-3.6
-4.346,-3.6
-4.3456,-3.8
-4.3452,-3.8
-4.3448,-3.6
-4.3444,-3.6
-4.344,-3.6
-4.3436,-3.6
-4.3432,-3.8
-4.3428,-3.8
-4.3424,-3.8
-4.342,-4
-4.3416,-3.8
-4.3412,-3.8
-4.3408,-3.8
-4.3404,-3.8
-4.34,-3.8
-4.3396,-4
-4.3392,-4
-4.3388,-3.8
-4.3384,-4
-4.338,-3.8
-4.3376,-4
-4.3372,-3.8
-4.3368,-4
-4.3364,-4
-4.336,-4
-4.3356,-3.8
-4.3352,-4
-4.3348,-4.2
-4.3344,-4.2
-4.334,-4.2
-4.3336,-4
-4.3332,-4.2
-4.3328,-4
-4.3324,-4
-4.332,-4.2
-4.3316,-4
-4.3312,-4.2
-4.3308,-4
-4.3304,-4.2
-4.33,-4.2
-4.3296,-4.2
-4.3292,-4.2
-4.3288,-4.4
-4.3284,-4.4
-4.328,-4.2
-4.3276,-4.2
-4.3272,-4.2
-4.3268,-4.2
-4.3264,-4.4
-4.326,-4.4
-4.3256,-4.4
-4.3252,-4.4
-4.3248,-4.4
-4.3244,-4.4
-4.324,-4.4
-4.3236,-4.4
-4.3232,-4.4
-4.3228,-4.4
-4.3224,-4.4
-4.322,-4.4
-4.3216,-4.4
-4.3212,-4.6
-4.3208,-4.4
-4.3204,-4.6
-4.32,-4.4
-4.3196,-4.6
-4.3192,-4.6
-4.3188,-4.6
-4.3184,-4.6
-4.318,-4.6
-4.3176,-4.6
-4.3172,-4.6
-4.3168,-4.6
-4.3164,-4.6
-4.316,-4.6
-4.3156,-4.6
-4.3152,-4.8
-4.3148,-4.6
-4.3144,-4.6
-4.314,-4.8
-4.3136,-4.8
-4.3132,-4.8
-4.3128,-4.8
-4.3124,-4.8
-4.312,-4.8
-4.3116,-4.8
-4.3112,-4.8
-4.3108,-4.8
-4.3104,-4.8
-4.31,-5
-4.3096,-4.8
-4.3092,-4.8
-4.3088,-5
-4.3084,-4.8
-4.308,-4.8
-4.3076,-4.8
-4.3072,-4.8
-4.3068,-5
-4.3064,-5
-4.306,-5
-4.3056,-5
-4.3052,-5.2
-4.3048,-5
-4.3044,-5
-4.304,-5
-4.3036,-5.2
-4.3032,-5
-4.3028,-5.2
-4.3024,-5.2
-4.302,-5.2
-4.3016,-5.2
-4.3012,-5.2
-4.3008,-5
-4.3004,-5.2
-4.3,-5.2
-4.2996,-5.2
-4.2992,-5.2
-4.2988,-5.2
-4.2984,-5.2
-4.298,-5.2
-4.2976,-5.2
-4.2972,-5.4
-4.2968,-5.2
-4.2964,-5.2
-4.296,-5.2
-4.2956,-5.4
-4.2952,-5.2
-4.2948,-5.4
-4.2944,-5.4
-4.294,-5.4
-4.2936,-5.4
-4.2932,-5.4
-4.2928,-5.6
-4.2924,-5.4
-4.292,-5.4
-4.2916,-5.4
-4.2912,-5.6
-4.2908,-5.4
-4.2904,-5.6
-4.29,-5.4
-4.2896,-5.4
-4.2892,-5.4
-4.2888,-5.6
-4.2884,-5.6
-4.288,-5.4
-4.2876,-5.6
-4.2872,-5.6
-4.2868,-5.4
-4.2864,-5.6
-4.286,-5.6
-4.2856,-5.6
-4.2852,-5.6
-4.2848,-5.6
-4.2844,-5.6
-4.284,-5.4
-4.2836,-5.6
-4.2832,-5.6
-4.2828,-5.6
-4.2824,-5.6
-4.282,-5.6
-4.2816,-5.6
-4.2812,-5.6
-4.2808,-5.6
-4.2804,-5.6
-4.28,-5.6
-4.2796,-5.6
-4.2792,-5.8
-4.2788,-5.8
-4.2784,-5.8
-4.278,-5.8
-4.2776,-5.8
-4.2772,-5.8
-4.2768,-5.8
-4.2764,-5.8
-4.276,-5.8
-4.2756,-5.8
-4.2752,-5.8
-4.2748,-6
-4.2744,-6
-4.274,-6
-4.2736,-6
-4.2732,-6
-4.2728,-6
-4.2724,-5.8
-4.272,-6
-4.2716,-6
-4.2712,-5.8
-4.2708,-6
-4.2704,-6
-4.27,-5.8
-4.2696,-6
-4.2692,-6
-4.2688,-6
-4.2684,-6
-4.268,-6
-4.2676,-6
-4.2672,-6
-4.2668,-6
-4.2664,-6
-4.266,-6
-4.2656,-6.2
-4.2652,-6
-4.2648,-6
-4.2644,-6.2
-4.264,-6.2
-4.2636,-6
-4.2632,-6
-4.2628,-6.2
-4.2624,-6.2
-4.262,-6.2
-4.2616,-6.2
-4.2612,-6.2
-4.2608,-6.2
-4.2604,-6.2
-4.26,-6
-4.2596,-6
-4.2592,-6.2
-4.2588,-6.2
-4.2584,-6
-4.258,-6.2
-4.2576,-6.2
-4.2572,-6.2
-4.2568,-6
-4.2564,-6.2
-4.256,-6.2
-4.2556,-6.2
-4.2552,-6.2
-4.2548,-6
-4.2544,-6.4
-4.254,-6.2
-4.2536,-6.4
-4.2532,-6.2
-4.2528,-6.2
-4.2524,-6.4
-4.252,-6.2
-4.2516,-6.2
-4.2512,-6.4
-4.2508,-6.4
-4.2504,-6.4
-4.25,-6.2
-4.2496,-6.2
-4.2492,-6.2
-4.2488,-6.2
-4.2484,-6.2
-4.248,-6.2
-4.2476,-6.4
-4.2472,-6.2
-4.2468,-6.2
-4.2464,-6.4
-4.246,-6.4
-4.2456,-6.4
-4.2452,-6.4
-4.2448,-6.2
-4.2444,-6.4
-4.244,-6.2
-4.2436,-6.4
-4.2432,-6.4
-4.2428,-6.4
-4.2424,-6.4
-4.242,-6.4
-4.2416,-6.2
-4.2412,-6.4
-4.2408,-6.2
-4.2404,-6.4
-4.24,-6.4
-4.2396,-6.4
-4.2392,-6.2
-4.2388,-6.4
-4.2384,-6.2
-4.238,-6.4
-4.2376,-6.4
-4.2372,-6.4
-4.2368,-6.4
-4.2364,-6.2
-4.236,-6.4
-4.2356,-6.4
-4.2352,-6.4
-4.2348,-6.2
-4.2344,-6.4
-4.234,-6.4
-4.2336,-6.2
-4.2332,-6.4
-4.2328,-6.4
-4.2324,-6.2
-4.232,-6.4
-4.2316,-6.2
-4.2312,-6.2
-4.2308,-6.2
-4.2304,-6.2
-4.23,-6.2
-4.2296,-6.2
-4.2292,-6.2
-4.2288,-6.2
-4.2284,-6.2
-4.228,-6
-4.2276,-6.2
-4.2272,-6.2
-4.2268,-6
-4.2264,-6
-4.226,-6
-4.2256,-6.2
-4.2252,-6
-4.2248,-6
-4.2244,-6
-4.224,-6
-4.2236,-6
-4.2232,-6
-4.2228,-5.8
-4.2224,-5.8
-4.222,-5.8
-4.2216,-5.8
-4.2212,-5.8
-4.2208,-5.6
-4.2204,-5.6
-4.22,-5.6
-4.2196,-5.6
-4.2192,-5.6
-4.2188,-5.6
-4.2184,-5.4
-4.218,-5.4
-4.2176,-5.6
-4.2172,-5.4
-4.2168,-5.2
-4.2164,-5.2
-4.216,-5.2
-4.2156,-5.2
-4.2152,-5
-4.2148,-5.2
-4.2144,-5
-4.214,-5
-4.2136,-5.2
-4.2132,-5.4
-4.2128,-5.2
-4.2124,-5
-4.212,-5.2
-4.2116,-5.4
-4.2112,-5.6
-4.2108,-5.4
-4.2104,-5.6
-4.21,-5.6
-4.2096,-5.8
-4.2092,-5.6
-4.2088,-5.8
-4.2084,-6
-4.208,-6
-4.2076,-6.2
-4.2072,-6.2
-4.2068,-6.2
-4.2064,-6.2
-4.206,-6
-4.2056,-6.2
-4.2052,-6.4
-4.2048,-6.2
-4.2044,-6.4
-4.204,-6.4
-4.2036,-6.4
-4.2032,-6.2
-4.2028,-6.4
-4.2024,-6.4
-4.202,-6.4
-4.2016,-6.4
-4.2012,-6.4
-4.2008,-6.4
-4.2004,-6.4
-4.2,-6.4
-4.1996,-6.4
-4.1992,-6.6
-4.1988,-6.4
-4.1984,-6.4
-4.198,-6.6
-4.1976,-6.4
-4.1972,-6.4
-4.1968,-6.4
-4.1964,-6.4
-4.196,-6.4
-4.1956,-6.4
-4.1952,-6.4
-4.1948,-6.4
-4.1944,-6.4
-4.194,-6.4
-4.1936,-6.4
-4.1932,-6.6
-4.1928,-6.2
-4.1924,-6.4
-4.192,-6.4
-4.1916,-6.4
-4.1912,-6.2
-4.1908,-6.2
-4.1904,-6.2
-4.19,-6.2
-4.1896,-6.2
-4.1892,-6.2
-4.1888,-6
-4.1884,-6.2
-4.188,-6.2
-4.1876,-6.2
-4.1872,-6.2
-4.1868,-6.2
-4.1864,-6.2
-4.186,-6
-4.1856,-6
-4.1852,-6.2
-4.1848,-6
-4.1844,-6.2
-4.184,-6
-4.1836,-5.8
-4.1832,-5.8
-4.1828,-6
-4.1824,-6
-4.182,-6
-4.1816,-5.8
-4.1812,-5.8
-4.1808,-5.8
-4.1804,-5.8
-4.18,-5.8
-4.1796,-5.8
-4.1792,-5.6
-4.1788,-5.6
-4.1784,-5.6
-4.178,-5.6
-4.1776,-5.6
-4.1772,-5.6
-4.1768,-5.4
-4.1764,-5.6
-4.176,-5.6
-4.1756,-5.6
-4.1752,-5.4
-4.1748,-5.4
-4.1744,-5.4
-4.174,-5.4
-4.1736,-5.4
-4.1732,-5.4
-4.1728,-5.2
-4.1724,-5.4
-4.172,-5.4
-4.1716,-5.2
-4.1712,-5.2
-4.1708,-5.2
-4.1704,-5.2
-4.17,-5
-4.1696,-5.2
-4.1692,-5
-4.1688,-4.8
-4.1684,-4.8
-4.168,-4.8
-4.1676,-4.8
-4.1672,-4.8
-4.1668,-4.8
-4.1664,-4.6
-4.166,-4.6
-4.1656,-4.8
-4.1652,-4.4
-4.1648,-4.4
-4.1644,-4.6
-4.164,-4.4
-4.1636,-4.4
-4.1632,-4.6
-4.1628,-4.4
-4.1624,-4.2
-4.162,-4.2
-4.1616,-4.2
-4.1612,-4
-4.1608,-3.8
-4.1604,-3.8
-4.16,-3.8
-4.1596,-3.8
-4.1592,-3.8
-4.1588,-3.4
-4.1584,-3.6
-4.158,-3.4
-4.1576,-3.2
-4.1572,-3.2
-4.1568,-3.2
-4.1564,-3.2
-4.156,-3
-4.1556,-2.8
-4.1552,-2.8
-4.1548,-2.8
-4.1544,-2.6
-4.154,-2.4
-4.1536,-2.4
-4.1532,-2.4
-4.1528,-2.4
-4.1524,-2.2
-4.152,-2.4
-4.1516,-2.4
-4.1512,-2.2
-4.1508,-2.2
-4.1504,-2.4
-4.15,-2.6
-4.1496,-2.6
-4.1492,-2.6
-4.1488,-2.6
-4.1484,-2.8
-4.148,-2.8
-4.1476,-3
-4.1472,-3
-4.1468,-3
-4.1464,-3
-4.146,-3.2
-4.1456,-3.2
-4.1452,-3.2
-4.1448,-3.4
-4.1444,-3.4
-4.144,-3.4
-4.1436,-3.4
-4.1432,-3.4
-4.1428,-3.4
-4.1424,-3.6
-4.142,-3.6
-4.1416,-3.6
-4.1412,-3.6
-4.1408,-3.8
-4.1404,-3.8
-4.14,-3.8
-4.1396,-3.8
-4.1392,-3.8
-4.1388,-3.8
-4.1384,-3.8
-4.138,-3.8
-4.1376,-3.8
-4.1372,-3.8
-4.1368,-3.8
-4.1364,-4
-4.136,-4
-4.1356,-4
-4.1352,-4
-4.1348,-4.2
-4.1344,-4
-4.134,-4
-4.1336,-4.2
-4.1332,-4
-4.1328,-4.2
-4.1324,-4.2
-4.132,-4
-4.1316,-4.2
-4.1312,-4
-4.1308,-4
-4.1304,-4.2
-4.13,-4
-4.1296,-4
-4.1292,-4
-4.1288,-4.2
-4.1284,-4
-4.128,-4
-4.1276,-4
-4.1272,-4
-4.1268,-4
-4.1264,-4
-4.126,-4.2
-4.1256,-4
-4.1252,-4
-4.1248,-4
-4.1244,-3.8
-4.124,-3.8
-4.1236,-3.8
-4.1232,-3.8
-4.1228,-3.8
-4.1224,-3.8
-4.122,-3.8
-4.1216,-3.8
-4.1212,-3.8
-4.1208,-3.6
-4.1204,-3.6
-4.12,-3.4
-4.1196,-3.6
-4.1192,-3.4
-4.1188,-3.4
-4.1184,-3.4
-4.118,-3
-4.1176,-3
-4.1172,-3
-4.1168,-2.8
-4.1164,-3
-4.116,-2.8
-4.1156,-2.6
-4.1152,-2.8
-4.1148,-2.8
-4.1144,-2.8
-4.114,-2.6
-4.1136,-2.8
-4.1132,-2.8
-4.1128,-2.8
-4.1124,-3
-4.112,-3.2
-4.1116,-3
-4.1112,-3
-4.1108,-3.2
-4.1104,-3.2
-4.11,-3.2
-4.1096,-3.6
-4.1092,-3.4
-4.1088,-3.6
-4.1084,-3.6
-4.108,-3.6
-4.1076,-3.6
-4.1072,-3.6
-4.1068,-3.6
-4.1064,-3.8
-4.106,-3.6
-4.1056,-3.6
-4.1052,-3.6
-4.1048,-3.8
-4.1044,-3.8
-4.104,-3.6
-4.1036,-3.8
-4.1032,-3.8
-4.1028,-3.8
-4.1024,-3.8
-4.102,-3.8
-4.1016,-3.8
-4.1012,-3.8
-4.1008,-3.8
-4.1004,-3.8
-4.1,-3.8
-4.0996,-4
-4.0992,-3.8
-4.0988,-4
-4.0984,-3.8
-4.098,-4
-4.0976,-3.8
-4.0972,-3.8
-4.0968,-3.8
-4.0964,-4
-4.096,-3.8
-4.0956,-3.8
-4.0952,-3.8
-4.0948,-3.8
-4.0944,-3.8
-4.094,-3.8
-4.0936,-3.8
-4.0932,-3.8
-4.0928,-3.8
-4.0924,-3.6
-4.092,-3.8
-4.0916,-3.8
-4.0912,-3.6
-4.0908,-3.6
-4.0904,-3.6
-4.09,-3.8
-4.0896,-3.6
-4.0892,-3.6
-4.0888,-3.8
-4.0884,-3.8
-4.088,-3.6
-4.0876,-3.8
-4.0872,-3.6
-4.0868,-3.8
-4.0864,-3.8
-4.086,-3.8
-4.0856,-3.8
-4.0852,-3.6
-4.0848,-3.8
-4.0844,-4
-4.084,-3.8
-4.0836,-3.8
-4.0832,-3.8
-4.0828,-3.8
-4.0824,-3.8
-4.082,-3.6
-4.0816,-3.8
-4.0812,-3.8
-4.0808,-3.8
-4.0804,-3.8
-4.08,-3.8
-4.0796,-4
-4.0792,-3.8
-4.0788,-3.8
-4.0784,-3.6
-4.078,-3.6
-4.0776,-3.8
-4.0772,-3.8
-4.0768,-3.8
-4.0764,-3.8
-4.076,-3.8
-4.0756,-3.8
-4.0752,-3.8
-4.0748,-3.6
-4.0744,-3.8
-4.074,-3.8
-4.0736,-3.8
-4.0732,-3.6
-4.0728,-3.6
-4.0724,-3.8
-4.072,-3.6
-4.0716,-3.6
-4.0712,-3.6
-4.0708,-3.8
-4.0704,-3.6
-4.07,-3.6
-4.0696,-3.6
-4.0692,-3.6
-4.0688,-3.6
-4.0684,-3.6
-4.068,-3.6
-4.0676,-3.6
-4.0672,-3.6
-4.0668,-3.6
-4.0664,-3.4
-4.066,-3.6
-4.0656,-3.6
-4.0652,-3.4
-4.0648,-3.4
-4.0644,-3.4
-4.064,-3.4
-4.0636,-3.4
-4.0632,-3.4
-4.0628,-3.2
-4.0624,-3.2
-4.062,-3.4
-4.0616,-3.2
-4.0612,-3.4
-4.0608,-3.2
-4.0604,-3.2
-4.06,-3.2
-4.0596,-3.2
-4.0592,-3
-4.0588,-3.2
-4.0584,-3.2
-4.058,-3
-4.0576,-3
-4.0572,-3
-4.0568,-3
-4.0564,-3
-4.056,-3
-4.0556,-3
-4.0552,-3
-4.0548,-3
-4.0544,-3.2
-4.054,-3
-4.0536,-3.2
-4.0532,-3
-4.0528,-3.2
-4.0524,-3.2
-4.052,-3.2
-4.0516,-3.2
-4.0512,-3.2
-4.0508,-3.2
-4.0504,-3.2
-4.05,-3.2
-4.0496,-3.2
-4.0492,-3.2
-4.0488,-3.2
-4.0484,-3.2
-4.048,-3.2
-4.0476,-3.4
-4.0472,-3.2
-4.0468,-3.4
-4.0464,-3.2
-4.046,-3.2
-4.0456,-3.2
-4.0452,-3.2
-4.0448,-3.2
-4.0444,-3.4
-4.044,-3.2
-4.0436,-3.4
-4.0432,-3.2
-4.0428,-3.2
-4.0424,-3.2
-4.042,-3.2
-4.0416,-3.2
-4.0412,-3.4
-4.0408,-3.4
-4.0404,-3.2
-4.04,-3.2
-4.0396,-3.2
-4.0392,-3.2
-4.0388,-3.2
-4.0384,-3.4
-4.038,-3.2
-4.0376,-3.2
-4.0372,-3.2
-4.0368,-3.2
-4.0364,-3.2
-4.036,-3.2
-4.0356,-3.2
-4.0352,-3.2
-4.0348,-3.2
-4.0344,-3.2
-4.034,-3.4
-4.0336,-3
-4.0332,-3.2
-4.0328,-3.2
-4.0324,-3.2
-4.032,-3.2
-4.0316,-3.2
-4.0312,-3.2
-4.0308,-3
-4.0304,-3
-4.03,-3
-4.0296,-3.2
-4.0292,-3
-4.0288,-3.2
-4.0284,-3.2
-4.028,-3.2
-4.0276,-3.2
-4.0272,-3
-4.0268,-3
-4.0264,-3.2
-4.026,-3
-4.0256,-3
-4.0252,-3
-4.0248,-3
-4.0244,-3
-4.024,-3
-4.0236,-3
-4.0232,-3
-4.0228,-3
-4.0224,-3.2
-4.022,-3
-4.0216,-2.8
-4.0212,-3
-4.0208,-2.8
-4.0204,-2.8
-4.02,-3
-4.0196,-3
-4.0192,-2.8
-4.0188,-3
-4.0184,-2.8
-4.018,-3
-4.0176,-3
-4.0172,-2.8
-4.0168,-3
-4.0164,-3
-4.016,-2.8
-4.0156,-3
-4.0152,-3.2
-4.0148,-3
-4.0144,-3
-4.014,-3
-4.0136,-3
-4.0132,-3
-4.0128,-3
-4.0124,-3
-4.012,-3
-4.0116,-2.8
-4.0112,-3
-4.0108,-2.8
-4.0104,-3
-4.01,-3
-4.0096,-3
-4.0092,-3
-4.0088,-3
-4.0084,-3
-4.008,-3
-4.0076,-2.8
-4.0072,-2.8
-4.0068,-2.8
-4.0064,-3
-4.006,-2.8
-4.0056,-3
-4.0052,-3
-4.0048,-2.8
-4.0044,-3
-4.004,-2.8
-4.0036,-2.8
-4.0032,-2.8
-4.0028,-3
-4.0024,-2.8
-4.002,-3
-4.0016,-2.8
-4.0012,-2.8
-4.0008,-2.8
-4.0004,-2.8
-4,-2.8
-3.9996,-3
-3.9992,-3
-3.9988,-2.8
-3.9984,-3
-3.998,-2.8
-3.9976,-2.8
-3.9972,-3
-3.9968,-2.8
-3.9964,-2.8
-3.996,-2.8
-3.9956,-2.8
-3.9952,-2.8
-3.9948,-2.8
-3.9944,-2.8
-3.994,-2.8
-3.9936,-2.8
-3.9932,-2.8
-3.9928,-2.8
-3.9924,-2.8
-3.992,-2.8
-3.9916,-2.6
-3.9912,-2.8
-3.9908,-2.8
-3.9904,-2.8
-3.99,-2.8
-3.9896,-2.8
-3.9892,-2.6
-3.9888,-2.8
-3.9884,-2.8
-3.988,-2.8
-3.9876,-2.8
-3.9872,-2.8
-3.9868,-2.6
-3.9864,-2.8
-3.986,-2.8
-3.9856,-2.6
-3.9852,-2.8
-3.9848,-2.8
-3.9844,-2.8
-3.984,-2.6
-3.9836,-2.8
-3.9832,-3
-3.9828,-2.8
-3.9824,-2.8
-3.982,-2.8
-3.9816,-2.8
-3.9812,-2.8
-3.9808,-2.8
-3.9804,-2.8
-3.98,-2.8
-3.9796,-2.8
-3.9792,-2.6
-3.9788,-2.6
-3.9784,-2.6
-3.978,-2.6
-3.9776,-2.6
-3.9772,-2.6
-3.9768,-2.8
-3.9764,-2.6
-3.976,-2.8
-3.9756,-2.6
-3.9752,-2.8
-3.9748,-2.8
-3.9744,-2.8
-3.974,-2.6
-3.9736,-2.8
-3.9732,-2.6
-3.9728,-2.8
-3.9724,-2.6
-3.972,-2.4
-3.9716,-2.8
-3.9712,-2.6
-3.9708,-2.8
-3.9704,-2.6
-3.97,-2.6
-3.9696,-2.8
-3.9692,-2.6
-3.9688,-2.6
-3.9684,-2.6
-3.968,-2.6
-3.9676,-2.8
-3.9672,-2.8
-3.9668,-2.8
-3.9664,-2.8
-3.966,-2.6
-3.9656,-2.6
-3.9652,-2.8
-3.9648,-2.6
-3.9644,-2.4
-3.964,-2.6
-3.9636,-2.6
-3.9632,-2.6
-3.9628,-2.6
-3.9624,-2.6
-3.962,-2.6
-3.9616,-2.6
-3.9612,-2.6
-3.9608,-2.6
-3.9604,-2.6
